ENLIGHTEN Version,1.6.8
Measurement ID,20190304-083733-457000-unknown
Serial Number,unknown
Label,2019-03-04 08:37:51 Cyclohexane 10x25ms Spectrum
Integration Time,25
Timestamp,2019-03-04 08:37:33.457000
Note,
Temperature,-99
CCD C0,801.7174072265625
CCD C1,0.14122000336647034
CCD C2,-5.609700110653648e-06
CCD C3,-8.541699791919655e-09
CCD Offset,0
CCD Gain,1.9
Laser Wavelength,785.0
Laser Enable,True
Laser Power,100.0
Laser Temperature,-99
Pixel Count,1024

Wavenumber,Processed
265.63,0.20
267.83,5.00
270.02,3.70
272.22,5.10
274.41,5.30
276.60,2.70
278.80,5.70
280.99,11.20
283.18,11.10
285.37,10.70
287.55,5.20
289.74,13.50
291.93,16.90
294.11,15.10
296.30,20.70
298.48,20.00
300.66,18.30
302.84,20.00
305.02,22.30
307.20,19.20
309.38,21.90
311.56,18.60
313.74,20.70
315.91,19.70
318.09,19.60
320.26,22.60
322.43,20.80
324.61,21.70
326.78,21.20
328.95,21.50
331.12,21.60
333.28,27.00
335.45,25.40
337.62,30.60
339.78,28.00
341.95,32.70
344.11,41.30
346.27,41.20
348.43,44.10
350.59,47.30
352.75,59.30
354.91,64.30
357.07,74.20
359.23,84.90
361.38,100.40
363.54,125.30
365.69,147.30
367.84,189.70
370.00,236.20
372.15,323.80
374.30,411.40
376.45,531.00
378.59,630.20
380.74,702.70
382.89,707.00
385.03,674.60
387.18,575.30
389.32,445.70
391.46,348.70
393.60,267.40
395.74,211.20
397.88,193.60
400.02,175.50
402.16,168.20
404.29,176.10
406.43,190.30
408.57,220.00
410.70,250.10
412.83,314.60
414.96,397.20
417.09,529.90
419.22,681.00
421.35,849.30
423.48,940.30
425.61,974.90
427.73,915.40
429.86,788.10
431.98,628.10
434.11,481.80
436.23,364.20
438.35,282.10
440.47,227.10
442.59,186.80
444.71,162.90
446.82,146.90
448.94,120.00
451.05,122.60
453.17,102.30
455.28,106.00
457.39,95.30
459.51,92.00
461.62,103.10
463.73,105.10
465.83,99.40
467.94,113.20
470.05,114.70
472.15,125.60
474.26,133.10
476.36,135.70
478.47,125.60
480.57,115.60
482.67,110.80
484.77,98.60
486.87,85.60
488.97,68.20
491.06,60.10
493.16,55.30
495.25,54.70
497.35,48.50
499.44,46.20
501.53,45.10
503.62,43.60
505.71,39.30
507.80,41.90
509.89,42.10
511.98,37.70
514.07,39.60
516.15,45.60
518.24,48.70
520.32,47.10
522.40,55.70
524.48,42.90
526.56,52.70
528.64,42.60
530.72,40.60
532.80,43.30
534.88,35.00
536.95,33.80
539.03,34.50
541.10,27.00
543.17,23.40
545.24,24.70
547.32,28.00
549.39,23.70
551.45,23.30
553.52,19.70
555.59,22.30
557.66,17.90
559.72,17.30
561.78,17.60
563.85,18.00
565.91,16.60
567.97,18.20
570.03,19.40
572.09,15.20
574.15,14.90
576.21,10.30
578.26,11.40
580.32,11.20
582.37,8.00
584.42,11.30
586.48,8.20
588.53,11.00
590.58,14.00
592.63,9.50
594.68,6.70
596.72,14.40
598.77,15.00
600.82,15.40
602.86,9.00
604.90,16.00
606.95,15.20
608.99,14.80
611.03,14.40
613.07,14.60
615.11,15.90
617.15,23.70
619.18,17.10
621.22,19.00
623.25,17.50
625.29,22.80
627.32,17.80
629.35,15.00
631.38,13.90
633.41,12.90
635.44,10.00
637.47,7.00
639.50,13.10
641.52,10.30
643.55,10.80
645.57,18.10
647.60,14.10
649.62,7.10
651.64,7.60
653.66,9.30
655.68,3.40
657.70,7.60
659.71,0.90
661.73,6.20
663.75,3.60
665.76,9.80
667.77,8.90
669.79,5.50
671.80,2.00
673.81,6.20
675.82,9.00
677.83,9.20
679.83,-1.70
681.84,7.30
683.84,3.30
685.85,8.50
687.85,8.30
689.86,12.10
691.86,6.60
693.86,9.20
695.86,8.50
697.86,9.90
699.85,2.40
701.85,8.20
703.85,9.40
705.84,17.30
707.84,19.30
709.83,16.50
711.82,15.10
713.81,20.50
715.80,22.40
717.79,20.30
719.78,29.60
721.76,35.40
723.75,30.50
725.74,32.30
727.72,37.50
729.70,38.70
731.68,39.00
733.67,50.80
735.65,51.50
737.62,67.70
739.60,68.50
741.58,73.90
743.56,79.50
745.53,87.70
747.51,89.50
749.48,117.60
751.45,124.40
753.42,134.70
755.39,156.30
757.36,174.90
759.33,205.80
761.30,227.50
763.26,254.80
765.23,276.90
767.19,309.10
769.16,341.70
771.12,375.90
773.08,422.10
775.04,483.60
777.00,561.10
778.96,640.00
780.92,755.40
782.87,885.50
784.83,1040.80
786.78,1284.00
788.74,1724.80
790.69,2658.50
792.64,4601.20
794.59,8556.00
796.54,14225.40
798.49,19323.60
800.44,21865.60
802.38,19907.60
804.33,17949.20
806.27,12332.90
808.22,6832.90
810.16,3363.90
812.10,1746.70
814.04,1099.80
815.98,808.80
817.92,646.60
819.86,538.40
821.80,450.60
823.73,391.10
825.67,349.90
827.60,315.20
829.53,282.90
831.47,256.20
833.40,239.80
835.33,222.60
837.26,205.50
839.18,194.70
841.11,187.80
843.04,191.70
844.96,197.20
846.89,210.00
848.81,211.30
850.73,214.10
852.65,217.70
854.57,201.00
856.49,169.60
858.41,147.50
860.33,138.30
862.24,123.60
864.16,116.70
866.07,107.70
867.99,100.60
869.90,96.90
871.81,90.70
873.72,81.70
875.63,82.50
877.54,74.80
879.44,78.90
881.35,77.30
883.26,75.90
885.16,83.50
887.06,71.80
888.97,74.00
890.87,82.20
892.77,88.90
894.67,78.70
896.57,102.20
898.46,99.90
900.36,100.90
902.26,111.30
904.15,106.30
906.04,109.20
907.94,93.00
909.83,90.10
911.72,88.60
913.61,82.70
915.50,73.40
917.38,62.70
919.27,61.30
921.16,58.80
923.04,55.50
924.92,55.90
926.81,49.50
928.69,52.40
930.57,54.40
932.45,47.30
934.33,48.60
936.20,49.10
938.08,45.10
939.96,40.40
941.83,51.90
943.71,51.40
945.58,50.50
947.45,39.30
949.32,48.00
951.19,53.30
953.06,57.30
954.93,61.80
956.79,63.10
958.66,68.10
960.52,73.90
962.39,82.70
964.25,82.10
966.11,87.40
967.97,89.10
969.83,98.50
971.69,107.90
973.55,127.70
975.41,141.60
977.26,148.10
979.12,162.60
980.97,182.50
982.82,199.00
984.68,228.40
986.53,250.80
988.38,276.40
990.23,309.60
992.07,349.40
993.92,391.30
995.77,444.60
997.61,498.30
999.46,566.40
1001.30,652.30
1003.14,754.70
1004.98,862.50
1006.82,1010.80
1008.66,1190.50
1010.50,1422.40
1012.34,1725.20
1014.17,2126.20
1016.01,2629.60
1017.84,3295.50
1019.68,4147.70
1021.51,5136.20
1023.34,6116.90
1025.17,6925.20
1027.00,7339.90
1028.83,7287.50
1030.65,6731.20
1032.48,5881.50
1034.31,4879.90
1036.13,3948.60
1037.95,3148.80
1039.77,2613.20
1041.60,2076.80
1043.42,1729.10
1045.24,1463.50
1047.05,1254.40
1048.87,1102.60
1050.69,955.80
1052.50,848.00
1054.32,748.80
1056.13,662.20
1057.94,602.90
1059.75,547.20
1061.56,500.70
1063.37,455.80
1065.18,415.30
1066.99,371.90
1068.80,347.30
1070.60,323.00
1072.41,292.70
1074.21,276.10
1076.01,259.70
1077.81,249.70
1079.61,232.90
1081.41,226.40
1083.21,210.70
1085.01,213.80
1086.81,211.70
1088.60,202.80
1090.40,200.10
1092.19,193.90
1093.98,202.30
1095.77,202.10
1097.56,197.60
1099.35,205.50
1101.14,200.40
1102.93,199.50
1104.72,197.40
1106.50,201.70
1108.29,193.40
1110.07,195.40
1111.85,186.60
1113.63,185.60
1115.41,169.10
1117.19,163.10
1118.97,163.40
1120.75,148.10
1122.53,141.20
1124.30,150.80
1126.08,158.20
1127.85,157.20
1129.62,160.90
1131.39,167.20
1133.17,174.50
1134.93,193.10
1136.70,211.70
1138.47,230.10
1140.24,248.40
1142.00,274.70
1143.77,321.30
1145.53,369.10
1147.29,453.80
1149.06,611.30
1150.82,891.80
1152.58,1272.00
1154.34,1640.70
1156.09,1866.20
1157.85,1896.40
1159.61,1728.20
1161.36,1370.90
1163.11,963.10
1164.87,620.80
1166.62,401.40
1168.37,287.00
1170.12,236.80
1171.87,195.50
1173.62,172.90
1175.36,159.30
1177.11,136.10
1178.85,129.00
1180.60,119.10
1182.34,110.90
1184.08,104.90
1185.82,100.40
1187.56,91.20
1189.30,90.90
1191.04,95.10
1192.78,93.10
1194.51,100.60
1196.25,105.90
1197.98,100.90
1199.71,103.50
1201.45,113.50
1203.18,125.60
1204.91,128.70
1206.64,136.00
1208.36,145.20
1210.09,155.20
1211.82,168.20
1213.54,176.50
1215.27,185.40
1216.99,190.10
1218.71,200.50
1220.43,219.50
1222.15,241.30
1223.87,234.10
1225.59,259.10
1227.31,287.10
1229.02,301.80
1230.74,335.20
1232.45,359.10
1234.16,400.30
1235.88,448.00
1237.59,495.60
1239.30,553.90
1241.01,623.30
1242.71,710.50
1244.42,816.20
1246.13,938.10
1247.83,1098.50
1249.54,1292.30
1251.24,1529.10
1252.94,1836.90
1254.64,2276.30
1256.34,2793.10
1258.04,3514.20
1259.74,4315.30
1261.44,5129.50
1263.13,5857.70
1264.83,6308.60
1266.52,6399.80
1268.22,6071.90
1269.91,5499.10
1271.60,4742.30
1273.29,3975.80
1274.98,3259.30
1276.67,2681.50
1278.35,2228.00
1280.04,1861.00
1281.73,1585.70
1283.41,1360.60
1285.09,1190.80
1286.78,1044.70
1288.46,927.00
1290.14,827.50
1291.82,742.70
1293.49,686.40
1295.17,629.30
1296.85,564.30
1298.52,518.50
1300.20,482.30
1301.87,453.90
1303.54,420.60
1305.21,405.30
1306.88,381.70
1308.55,363.00
1310.22,360.10
1311.89,344.80
1313.56,336.50
1315.22,332.30
1316.89,339.40
1318.55,342.20
1320.21,338.90
1321.87,357.50
1323.53,371.40
1325.19,385.00
1326.85,408.20
1328.51,433.90
1330.16,473.00
1331.82,507.60
1333.47,557.60
1335.13,618.30
1336.78,692.70
1338.43,779.90
1340.08,892.30
1341.73,997.70
1343.38,1105.10
1345.03,1168.20
1346.67,1201.70
1348.32,1211.00
1349.96,1123.50
1351.61,1040.10
1353.25,933.60
1354.89,825.90
1356.53,713.50
1358.17,624.20
1359.81,514.10
1361.45,485.90
1363.08,415.80
1364.72,382.90
1366.35,326.70
1367.99,309.90
1369.62,290.20
1371.25,269.30
1372.88,270.60
1374.51,260.40
1376.14,243.00
1377.77,249.00
1379.39,243.20
1381.02,232.90
1382.64,254.60
1384.27,262.20
1385.89,263.60
1387.51,253.90
1389.13,268.00
1390.75,260.50
1392.37,272.90
1393.99,274.10
1395.60,286.50
1397.22,286.20
1398.83,315.60
1400.45,332.70
1402.06,343.90
1403.67,377.30
1405.28,395.10
1406.89,447.60
1408.50,485.50
1410.11,533.30
1411.71,580.30
1413.32,647.40
1414.92,748.90
1416.53,842.20
1418.13,959.60
1419.73,1096.40
1421.33,1247.40
1422.93,1416.60
1424.53,1559.90
1426.13,1732.60
1427.72,1884.10
1429.32,2082.60
1430.91,2301.40
1432.51,2615.30
1434.10,2992.00
1435.69,3487.90
1437.28,4104.80
1438.87,4743.00
1440.46,5295.90
1442.05,5736.50
1443.64,5885.80
1445.22,5725.90
1446.81,5385.00
1448.39,4810.10
1449.97,4183.20
1451.55,3558.90
1453.14,3049.30
1454.72,2583.00
1456.29,2231.20
1457.87,1952.60
1459.45,1749.50
1461.02,1632.60
1462.60,1553.90
1464.17,1461.30
1465.75,1365.30
1467.32,1268.10
1468.89,1125.50
1470.46,990.10
1472.03,844.60
1473.59,764.50
1475.16,676.40
1476.73,641.50
1478.29,590.00
1479.86,565.40
1481.42,541.50
1482.98,527.20
1484.54,503.00
1486.10,490.70
1487.66,457.00
1489.22,422.90
1490.77,382.70
1492.33,364.30
1493.88,340.40
1495.44,302.60
1496.99,258.70
1498.54,260.60
1500.09,234.00
1501.64,211.50
1503.19,188.70
1504.74,181.20
1506.29,170.30
1507.83,166.20
1509.38,154.30
1510.92,140.40
1512.47,127.30
1514.01,117.80
1515.55,136.10
1517.09,107.80
1518.63,98.00
1520.16,102.30
1521.70,99.40
1523.24,91.50
1524.77,95.60
1526.31,83.30
1527.84,80.30
1529.37,90.80
1530.90,88.20
1532.43,96.50
1533.96,103.10
1535.49,91.60
1537.02,99.30
1538.54,91.40
1540.07,95.60
1541.59,91.50
1543.11,79.90
1544.64,87.20
1546.16,81.60
1547.68,73.10
1549.20,69.60
1550.71,67.10
1552.23,58.50
1553.75,67.60
1555.26,57.70
1556.78,66.20
1558.29,63.90
1559.80,64.40
1561.31,65.30
1562.82,75.10
1564.33,71.70
1565.84,69.50
1567.35,87.30
1568.85,70.20
1570.36,72.30
1571.86,67.10
1573.36,86.50
1574.87,67.40
1576.37,80.90
1577.87,61.60
1579.37,57.80
1580.87,50.10
1582.36,62.50
1583.86,56.80
1585.35,56.10
1586.85,49.20
1588.34,44.60
1589.83,45.80
1591.32,32.80
1592.81,42.80
1594.30,31.60
1595.79,39.80
1597.28,28.80
1598.76,38.80
1600.25,35.80
1601.73,34.80
1603.22,34.80
1604.70,35.40
1606.18,28.00
1607.66,16.90
1609.14,25.40
1610.62,29.80
1612.10,30.20
1613.57,18.60
1615.05,17.40
1616.52,39.00
1617.99,26.30
1619.47,15.30
1620.94,12.80
1622.41,16.80
1623.88,29.40
1625.35,18.30
1626.81,23.80
1628.28,23.70
1629.74,10.20
1631.21,31.00
1632.67,20.70
1634.13,8.50
1635.60,30.00
1637.06,13.20
1638.51,29.20
1639.97,30.50
1641.43,23.80
1642.89,24.20
1644.34,11.60
1645.80,30.60
1647.25,14.60
1648.70,24.00
1650.15,21.60
1651.60,19.20
1653.05,26.00
1654.50,27.20
1655.95,36.50
1657.40,25.20
1658.84,19.40
1660.28,16.80
1661.73,25.90
1663.17,27.50
1664.61,33.00
1666.05,21.50
1667.49,28.60
1668.93,17.70
1670.37,24.40
1671.80,41.40
1673.24,41.30
1674.67,37.00
1676.11,39.30
1677.54,45.40
1678.97,42.60
1680.40,43.90
1681.83,66.20
1683.26,64.40
1684.69,62.60
1686.11,79.80
1687.54,72.40
1688.96,71.30
1690.39,65.60
1691.81,77.90
1693.23,65.00
1694.65,68.20
1696.07,55.70
1697.49,49.90
1698.91,47.60
1700.32,48.80
1701.74,36.20
1703.15,35.20
1704.57,33.50
1705.98,26.40
1707.39,35.60
1708.80,27.40
1710.21,22.10
1711.62,24.70
1713.03,34.90
1714.43,25.10
1715.84,30.00
1717.24,36.20
1718.65,40.80
1720.05,39.00
1721.45,29.70
1722.85,32.90
1724.25,27.30
1725.65,29.80
1727.05,31.60
1728.44,13.80
1729.84,30.70
1731.23,14.00
1732.63,22.40
1734.02,19.40
1735.41,18.00
1736.80,16.40
1738.19,9.20
1739.58,15.60
1740.97,14.40
1742.35,14.30
1743.74,17.90
1745.12,20.20
1746.51,15.50
1747.89,21.20
1749.27,11.50
1750.65,25.30
1752.03,16.40
1753.41,17.90
1754.79,14.60
1756.17,6.10
1757.54,5.90
1758.92,24.50
1760.29,19.60
1761.66,21.30
1763.03,15.10
1764.41,22.20
1765.78,15.30
1767.14,16.20
1768.51,10.40
1769.88,7.90
1771.24,18.90
1772.61,11.60
1773.97,4.90
1775.34,22.50
1776.70,10.30
1778.06,16.30
1779.42,12.70
1780.78,11.90
1782.13,13.30
1783.49,9.80
1784.85,7.20
1786.20,2.60
1787.56,12.80
1788.91,0.00
1790.26,6.30
1791.61,9.10
1792.96,6.90
1794.31,8.40
1795.66,13.10
1797.00,9.70
1798.35,8.50
1799.69,11.70
1801.04,14.60
1802.38,12.20
1803.72,12.10
1805.06,16.10
1806.40,10.30
1807.74,11.80
1809.08,9.40
1810.42,13.00
1811.75,17.30
1813.09,17.40
1814.42,21.10
1815.76,9.90
1817.09,17.40
1818.42,17.60
1819.75,7.50
1821.08,7.10
1822.40,5.90
1823.73,12.00
1825.06,24.00
1826.38,14.40
1827.71,18.40
1829.03,14.80
1830.35,18.30
1831.67,17.50
1832.99,5.80
1834.31,18.60
1835.63,9.90
1836.95,12.80
1838.26,13.50
1839.58,13.90
1840.89,7.90
1842.20,8.10
1843.52,13.90
1844.83,6.90
1846.14,26.40
1847.45,9.00
1848.75,11.90
1850.06,13.40
1851.37,16.40
1852.67,17.20
1853.98,13.10
1855.28,16.50
1856.58,16.10
1857.88,9.90
1859.18,19.30
1860.48,9.30
1861.78,21.70
1863.08,11.20
1864.37,12.10
1865.67,19.00
1866.96,19.80
1868.26,13.40
1869.55,7.00
1870.84,12.50
1872.13,15.90
1873.42,10.30
1874.71,6.20
1875.99,9.60
1877.28,6.60
1878.56,2.30
1879.85,4.90
1881.13,-4.20
1882.41,4.00
1883.69,-3.50
1884.97,6.50
1886.25,5.10
1887.53,1.70
1888.81,-1.60
1890.09,2.80
1891.36,-7.20
1892.63,-0.30
1893.91,-2.00
1895.18,-3.60
1896.45,0.50
1897.72,-4.00
1898.99,-6.70
1900.26,-6.70
1901.53,0.40
1902.79,1.90
1904.06,3.10
1905.32,2.40
1906.58,0.50
1907.85,3.40
1909.11,-0.50
1910.37,2.00
1911.63,-5.60
1912.89,1.70
1914.14,-0.90
1915.40,2.00
1916.65,-2.50
1917.91,4.20
1919.16,3.10
1920.41,-8.10
1921.67,-1.10
1922.92,7.10
1924.17,0.00
1925.41,14.60
1926.66,10.10
1927.91,4.90
1929.15,5.70
1930.40,-0.30
1931.64,0.50
1932.88,-0.30
1934.12,-4.00
1935.36,8.90
1936.60,2.90
1937.84,5.10
1939.08,15.20
1940.32,6.40
1941.55,12.10
1942.79,12.00
1944.02,17.40
1945.25,19.00
1946.48,13.70
1947.71,17.10
1948.94,9.00
1950.17,16.60
1951.40,28.30
1952.62,26.40
1953.85,16.30
1955.07,22.50
1956.30,19.40
1957.52,22.50
1958.74,22.70
1959.96,26.00
1961.18,23.50
1962.40,12.30
1963.62,23.30
1964.83,24.20
1966.05,16.40
1967.26,29.00
1968.48,29.60
1969.69,34.80
1970.90,30.60
1972.11,28.70
1973.32,30.60
1974.53,34.00
1975.74,29.40
1976.94,31.20
1978.15,28.00
1979.35,27.20
1980.56,22.30
1981.76,19.50
1982.96,19.30
1984.16,12.10
1985.36,13.20
1986.56,10.30
1987.76,11.80
1988.95,5.60
1990.15,4.20
1991.34,12.10
1992.54,10.00
1993.73,8.00
1994.92,5.40
1996.11,8.00
1997.30,7.50
1998.49,8.40
1999.68,9.00
