ENLIGHTEN Version,1.6.8
Measurement ID,20190305-164457-477000-unknown
Serial Number,unknown
Label,2019-03-05 16:54:26 Glucose 100g/L 10x1s Spectrum
Integration Time,60
Timestamp,2019-03-05 16:44:57.477000
Note,
Temperature,-99
CCD C0,536.9515991210938
CCD C1,0.12007000297307968
CCD C2,-1.7113000012614066e-06
CCD C3,-8.254399830320835e-09
CCD Offset,0
CCD Gain,1.9
Laser Wavelength,532.0
Laser Enable,False
Laser Power,100.0
Laser Temperature,-99
Pixel Count,1024

Wavenumber,Processed
173.34,16002.60
177.50,16002.30
181.67,15985.10
185.82,15951.70
189.98,15938.00
194.14,15923.80
198.29,15919.40
202.44,15911.70
206.59,15871.40
210.74,15860.10
214.89,15833.20
219.03,15810.30
223.17,15787.00
227.31,15762.10
231.45,15732.50
235.58,15711.70
239.72,15691.40
243.85,15651.50
247.98,15652.20
252.11,15603.30
256.23,15567.70
260.36,15534.80
264.48,15527.00
268.60,15493.00
272.72,15448.00
276.83,15466.40
280.95,15416.30
285.06,15402.30
289.17,15357.40
293.28,15349.20
297.38,15347.40
301.49,15281.50
305.59,15256.80
309.69,15250.30
313.79,15213.70
317.88,15221.50
321.98,15227.70
326.07,15182.30
330.16,15180.70
334.25,15168.30
338.33,15126.90
342.42,15120.80
346.50,15103.50
350.58,15071.80
354.66,15052.10
358.73,15070.50
362.81,15043.60
366.88,15043.30
370.95,15015.70
375.02,15024.50
379.08,15010.50
383.15,15011.70
387.21,15028.70
391.27,15026.70
395.33,15031.80
399.38,15020.90
403.44,15016.10
407.49,15009.60
411.54,15001.20
415.59,15016.10
419.63,15019.80
423.68,15007.60
427.72,15037.40
431.76,14999.40
435.80,15003.20
439.84,15026.00
443.87,15024.50
447.90,14997.50
451.93,14984.70
455.96,14982.90
459.99,14953.90
464.01,14940.00
468.03,14899.00
472.05,14875.40
476.07,14816.00
480.09,14792.30
484.10,14746.30
488.11,14681.30
492.12,14629.00
496.13,14564.20
500.14,14486.00
504.14,14442.30
508.14,14330.40
512.14,14263.00
516.14,14152.20
520.14,14073.10
524.13,13969.30
528.12,13837.50
532.11,13728.10
536.10,13591.50
540.09,13463.80
544.07,13341.80
548.06,13184.30
552.04,13053.40
556.01,12894.10
559.99,12730.20
563.96,12564.20
567.94,12386.60
571.91,12222.30
575.87,12016.80
579.84,11798.60
583.80,11620.60
587.77,11424.50
591.73,11244.10
595.69,11059.30
599.64,10850.00
603.60,10630.70
607.55,10456.70
611.50,10261.30
615.45,10061.20
619.39,9862.20
623.34,9686.30
627.28,9465.80
631.22,9294.20
635.16,9109.30
639.09,8934.60
643.03,8720.50
646.96,8538.70
650.89,8361.30
654.82,8201.90
658.74,8011.10
662.67,7840.60
666.59,7668.20
670.51,7501.60
674.43,7331.00
678.34,7163.40
682.26,7014.60
686.17,6853.80
690.08,6693.20
693.99,6535.70
697.89,6382.70
701.80,6231.70
705.70,6086.20
709.60,5929.10
713.50,5811.50
717.39,5666.70
721.29,5529.70
725.18,5388.30
729.07,5254.00
732.96,5124.20
736.84,4976.70
740.72,4878.40
744.61,4745.10
748.49,4648.60
752.36,4524.80
756.24,4401.60
760.11,4296.30
763.99,4199.20
767.86,4069.40
771.72,3987.00
775.59,3890.20
779.45,3790.90
783.31,3704.00
787.17,3610.00
791.03,3521.60
794.89,3440.70
798.74,3349.30
802.59,3277.30
806.44,3231.10
810.29,3154.70
814.14,3089.80
817.98,3027.50
821.82,2975.20
825.66,2921.90
829.50,2875.90
833.33,2846.20
837.17,2806.90
841.00,2771.60
844.83,2774.80
848.66,2769.60
852.48,2775.30
856.31,2793.60
860.13,2814.80
863.95,2865.20
867.76,2910.10
871.58,2959.50
875.39,2989.10
879.20,3040.40
883.01,3085.60
886.82,3134.80
890.63,3184.10
894.43,3236.80
898.23,3291.50
902.03,3359.50
905.83,3420.30
909.62,3525.90
913.42,3633.80
917.21,3732.20
921.00,3818.50
924.79,3889.40
928.57,3920.80
932.35,3904.90
936.13,3889.40
939.91,3831.60
943.69,3764.80
947.47,3707.20
951.24,3659.30
955.01,3626.10
958.78,3631.80
962.55,3650.80
966.31,3703.00
970.08,3792.90
973.84,3885.30
977.60,4019.30
981.35,4145.20
985.11,4291.50
988.86,4423.00
992.61,4543.00
996.36,4630.40
1000.11,4691.20
1003.85,4711.40
1007.60,4700.60
1011.34,4629.30
1015.08,4518.50
1018.81,4369.90
1022.55,4181.90
1026.28,4001.40
1030.01,3804.00
1033.74,3619.90
1037.47,3440.20
1041.19,3273.60
1044.92,3097.70
1048.64,2944.60
1052.36,2756.00
1056.07,2616.90
1059.79,2463.40
1063.50,2321.40
1067.21,2201.40
1070.92,2071.40
1074.63,1976.30
1078.33,1878.30
1082.03,1772.70
1085.74,1696.30
1089.43,1615.00
1093.13,1556.90
1096.83,1495.90
1100.52,1429.80
1104.21,1372.90
1107.90,1336.50
1111.58,1289.00
1115.27,1243.70
1118.95,1216.00
1122.63,1187.50
1126.31,1153.40
1129.99,1126.60
1133.66,1095.60
1137.33,1085.50
1141.00,1063.30
1144.67,1044.40
1148.34,1038.90
1152.00,1020.20
1155.67,1006.10
1159.33,1003.20
1162.99,982.40
1166.64,987.30
1170.30,966.40
1173.95,969.70
1177.60,969.90
1181.25,956.30
1184.89,961.70
1188.54,950.10
1192.18,945.40
1195.82,943.90
1199.46,943.90
1203.10,942.90
1206.73,942.20
1210.36,942.50
1213.99,952.90
1217.62,947.40
1221.25,959.30
1224.87,954.40
1228.49,951.80
1232.11,961.30
1235.73,966.30
1239.35,953.30
1242.96,951.60
1246.57,961.80
1250.19,952.10
1253.79,944.50
1257.40,929.60
1261.00,931.30
1264.61,914.50
1268.21,909.00
1271.80,910.30
1275.40,882.90
1278.99,879.60
1282.59,861.60
1286.18,854.50
1289.76,844.80
1293.35,824.10
1296.93,818.90
1300.52,796.40
1304.10,789.40
1307.67,789.70
1311.25,774.30
1314.82,780.80
1318.40,762.70
1321.97,751.20
1325.53,746.00
1329.10,739.50
1332.66,735.50
1336.23,742.50
1339.79,726.10
1343.34,728.40
1346.90,736.80
1350.45,723.00
1354.00,738.90
1357.55,726.20
1361.10,729.20
1364.65,722.20
1368.19,731.00
1371.73,730.20
1375.27,726.50
1378.81,727.50
1382.35,717.30
1385.88,737.20
1389.41,725.20
1392.94,728.10
1396.47,720.00
1400.00,729.70
1403.52,723.30
1407.04,715.00
1410.56,715.50
1414.08,706.70
1417.59,712.60
1421.11,716.70
1424.62,712.20
1428.13,715.40
1431.64,712.10
1435.14,709.70
1438.64,701.70
1442.15,711.30
1445.65,720.30
1449.14,719.20
1452.64,721.60
1456.13,706.80
1459.62,712.60
1463.11,709.10
1466.60,710.40
1470.09,726.10
1473.57,720.50
1477.05,720.90
1480.53,728.40
1484.01,729.40
1487.48,714.20
1490.96,727.40
1494.43,733.70
1497.90,743.10
1501.37,737.20
1504.83,739.80
1508.29,725.30
1511.76,730.20
1515.22,739.00
1518.67,740.60
1522.13,740.90
1525.58,735.00
1529.03,746.20
1532.48,742.20
1535.93,763.60
1539.37,745.70
1542.82,751.40
1546.26,760.10
1549.70,765.30
1553.14,758.60
1556.57,752.10
1560.00,760.90
1563.44,751.50
1566.87,770.90
1570.29,760.90
1573.72,762.20
1577.14,767.00
1580.56,785.80
1583.98,779.20
1587.40,783.10
1590.81,776.50
1594.23,778.00
1597.64,778.40
1601.05,776.40
1604.46,775.00
1607.86,785.80
1611.26,792.60
1614.67,802.70
1618.06,781.30
1621.46,803.30
1624.86,802.70
1628.25,805.50
1631.64,804.40
1635.03,821.30
1638.42,808.60
1641.80,810.00
1645.19,819.70
1648.57,821.30
1651.95,823.80
1655.32,820.90
1658.70,825.10
1662.07,822.90
1665.44,834.70
1668.81,831.50
1672.18,825.70
1675.54,832.70
1678.91,830.30
1682.27,837.50
1685.63,839.20
1688.99,847.10
1692.34,849.60
1695.69,866.60
1699.05,860.10
1702.39,867.40
1705.74,860.70
1709.09,864.30
1712.43,869.80
1715.77,861.60
1719.11,877.30
1722.45,865.10
1725.78,863.90
1729.12,852.60
1732.45,802.00
1735.78,817.20
1739.10,856.00
1742.43,873.90
1745.75,888.70
1749.07,904.00
1752.39,892.40
1755.71,900.70
1759.02,903.60
1762.34,910.80
1765.65,916.60
1768.96,920.10
1772.26,936.10
1775.57,936.90
1778.87,939.40
1782.17,928.10
1785.47,929.80
1788.77,946.90
1792.07,946.00
1795.36,945.40
1798.65,955.20
1801.94,959.20
1805.23,974.30
1808.51,971.60
1811.80,979.30
1815.08,984.00
1818.36,988.50
1821.63,997.40
1824.91,992.20
1828.18,1010.80
1831.45,1005.00
1834.72,1016.80
1837.99,1029.90
1841.25,1025.50
1844.52,1032.20
1847.78,1036.90
1851.04,1038.20
1854.30,1041.90
1857.55,1043.40
1860.80,1055.70
1864.06,1056.00
1867.30,1064.10
1870.55,1062.80
1873.80,1059.20
1877.04,1082.10
1880.28,1069.30
1883.52,1086.90
1886.76,1081.60
1889.99,1083.30
1893.23,1092.50
1896.46,1090.50
1899.69,1097.10
1902.92,1107.10
1906.14,1128.60
1909.36,1124.10
1912.59,1128.40
1915.81,1119.50
1919.02,1135.40
1922.24,1141.40
1925.45,1134.00
1928.66,1152.80
1931.87,1154.50
1935.08,1148.40
1938.29,1155.20
1941.49,1157.80
1944.69,1157.40
1947.89,1153.90
1951.09,1159.50
1954.28,1180.80
1957.48,1167.00
1960.67,1155.90
1963.86,1176.30
1967.05,1174.80
1970.23,1177.00
1973.41,1175.80
1976.60,1178.20
1979.78,1187.00
1982.95,1172.30
1986.13,1177.10
1989.30,1180.80
1992.47,1181.50
1995.64,1181.30
1998.81,1188.50
2001.98,1177.90
2005.14,1179.50
2008.30,1182.90
2011.46,1175.10
2014.62,1179.20
2017.78,1175.60
2020.93,1159.10
2024.08,1167.90
2027.23,1158.80
2030.38,1170.60
2033.53,1168.80
2036.67,1164.20
2039.81,1163.90
2042.95,1167.30
2046.09,1160.70
2049.23,1174.00
2052.36,1166.60
2055.49,1170.50
2058.62,1167.20
2061.75,1162.90
2064.88,1154.60
2068.00,1169.40
2071.12,1160.60
2074.24,1159.10
2077.36,1153.70
2080.48,1162.80
2083.59,1144.80
2086.70,1148.60
2089.81,1171.30
2092.92,1161.40
2096.03,1148.70
2099.13,1155.80
2102.23,1160.30
2105.33,1159.50
2108.43,1154.50
2111.53,1153.50
2114.62,1156.20
2117.72,1142.10
2120.81,1152.90
2123.89,1155.00
2126.98,1146.40
2130.07,1144.80
2133.15,1158.60
2136.23,1152.30
2139.31,1149.60
2142.38,1152.30
2145.46,1157.80
2148.53,1150.20
2151.60,1153.80
2154.67,1154.90
2157.74,1165.90
2160.80,1167.40
2163.86,1163.60
2166.92,1163.90
2169.98,1171.80
2173.04,1173.80
2176.09,1182.10
2179.15,1186.70
2182.20,1192.80
2185.25,1190.60
2188.29,1191.60
2191.34,1207.60
2194.38,1214.10
2197.42,1229.60
2200.46,1210.90
2203.50,1221.30
2206.53,1235.00
2209.57,1227.30
2212.60,1238.70
2215.63,1237.10
2218.65,1251.40
2221.68,1254.50
2224.70,1246.20
2227.72,1254.60
2230.74,1264.90
2233.76,1263.80
2236.78,1280.50
2239.79,1275.50
2242.80,1274.40
2245.81,1286.20
2248.82,1291.20
2251.82,1317.10
2254.83,1316.10
2257.83,1309.10
2260.83,1318.50
2263.82,1338.30
2266.82,1345.20
2269.81,1348.80
2272.81,1352.50
2275.79,1374.70
2278.78,1376.20
2281.77,1374.60
2284.75,1385.20
2287.73,1398.40
2290.71,1418.30
2293.69,1423.90
2296.67,1435.70
2299.64,1450.40
2302.61,1460.00
2305.58,1461.20
2308.55,1490.10
2311.52,1494.10
2314.48,1520.40
2317.44,1523.00
2320.40,1545.20
2323.36,1553.10
2326.32,1564.40
2329.27,1595.00
2332.22,1609.40
2335.17,1611.50
2338.12,1637.50
2341.07,1664.70
2344.01,1671.30
2346.96,1701.00
2349.90,1728.30
2352.84,1764.40
2355.77,1789.50
2358.71,1807.50
2361.64,1847.80
2364.57,1875.10
2367.50,1913.00
2370.43,1945.20
2373.35,1982.70
2376.27,2018.80
2379.19,2047.90
2382.11,2097.40
2385.03,2126.20
2387.94,2161.10
2390.86,2195.70
2393.77,2224.30
2396.68,2258.90
2399.58,2274.70
2402.49,2305.20
2405.39,2333.20
2408.29,2358.80
2411.19,2357.60
2414.09,2361.40
2416.99,2360.50
2419.88,2351.10
2422.77,2340.10
2425.66,2336.40
2428.55,2320.70
2431.43,2296.80
2434.32,2280.80
2437.20,2271.70
2440.08,2253.70
2442.96,2226.30
2445.83,2208.00
2448.71,2192.60
2451.58,2176.80
2454.45,2158.90
2457.32,2162.60
2460.18,2150.50
2463.05,2138.30
2465.91,2124.40
2468.77,2124.10
2471.63,2120.50
2474.48,2113.50
2477.34,2120.70
2480.19,2106.00
2483.04,2098.70
2485.89,2104.10
2488.73,2121.70
2491.58,2112.10
2494.42,2117.00
2497.26,2120.70
2500.10,2131.60
2502.94,2113.40
2505.77,2125.30
2508.60,2124.10
2511.44,2131.50
2514.26,2146.20
2517.09,2137.50
2519.92,2150.70
2522.74,2155.40
2525.56,2156.50
2528.38,2171.00
2531.20,2167.30
2534.01,2185.70
2536.82,2190.80
2539.64,2224.20
2542.44,2256.50
2545.25,2320.80
2548.06,2406.30
2550.86,2501.90
2553.66,2595.90
2556.46,2685.90
2559.26,2687.70
2562.06,2678.60
2564.85,2610.60
2567.64,2526.10
2570.43,2488.00
2573.22,2464.80
2576.00,2469.70
2578.79,2479.50
2581.57,2505.40
2584.35,2524.30
2587.13,2549.00
2589.91,2565.60
2592.68,2580.80
2595.45,2585.50
2598.22,2596.70
2600.99,2625.50
2603.76,2649.90
2606.52,2682.60
2609.28,2722.60
2612.04,2770.70
2614.80,2818.40
2617.56,2880.60
2620.31,2946.50
2623.07,2996.10
2625.82,3034.40
2628.57,3091.60
2631.31,3103.40
2634.06,3102.00
2636.80,3107.90
2639.54,3072.80
2642.28,3032.50
2645.02,2988.10
2647.76,2976.90
2650.49,2961.50
2653.22,2944.90
2655.95,2969.00
2658.68,2979.50
2661.40,2976.60
2664.13,2960.90
2666.85,2941.90
2669.57,2922.60
2672.29,2913.50
2675.00,2889.60
2677.72,2846.90
2680.43,2825.70
2683.14,2809.00
2685.85,2799.40
2688.55,2810.50
2691.26,2803.60
2693.96,2810.20
2696.66,2839.90
2699.36,2865.60
2702.05,2900.60
2704.75,2945.60
2707.44,2971.00
2710.13,3004.10
2712.82,3013.10
2715.51,2980.10
2718.19,2960.20
2720.88,2938.10
2723.56,2945.90
2726.24,2935.40
2728.91,2922.80
2731.59,2927.60
2734.26,2927.60
2736.93,2929.10
2739.60,2912.60
2742.27,2902.20
2744.94,2909.00
2747.60,2917.90
2750.26,2920.40
2752.92,2935.40
2755.58,2938.00
2758.23,2936.20
2760.89,2924.50
2763.54,2910.10
2766.19,2910.70
2768.84,2893.80
2771.49,2913.90
2774.13,2923.20
2776.77,2946.50
2779.41,3008.10
2782.05,3072.20
2784.69,3116.70
2787.32,3212.40
2789.95,3255.10
2792.59,3283.20
2795.21,3320.40
2797.84,3380.50
2800.47,3506.70
2803.09,3679.80
2805.71,3889.00
2808.33,4044.30
2810.95,4130.40
2813.56,4136.00
2816.18,4050.20
2818.79,3920.30
2821.40,3785.40
2824.00,3688.60
2826.61,3600.30
2829.21,3518.30
2831.81,3426.00
2834.41,3378.80
2837.01,3388.90
2839.61,3444.40
2842.20,3525.50
2844.79,3599.60
2847.39,3664.10
2849.97,3729.30
2852.56,3799.50
2855.14,3838.00
2857.73,3826.00
2860.31,3754.90
2862.89,3666.10
2865.46,3626.60
2868.04,3590.00
2870.61,3613.30
2873.18,3594.40
2875.75,3590.30
2878.32,3576.80
2880.88,3554.40
2883.45,3555.50
2886.01,3550.40
2888.57,3548.50
2891.12,3498.30
2893.68,3420.10
2896.23,3340.70
2898.79,3316.00
2901.34,3292.00
2903.88,3284.60
2906.43,3254.30
2908.97,3250.90
2911.52,3233.20
2914.06,3231.30
2916.59,3217.10
2919.13,3217.20
2921.66,3222.30
2924.20,3228.80
2926.73,3228.90
2929.26,3245.30
2931.78,3277.30
2934.31,3265.70
2936.83,3286.50
2939.35,3319.40
2941.87,3349.40
2944.39,3407.90
2946.90,3465.50
2949.42,3560.10
2951.93,3623.20
2954.44,3682.10
2956.95,3661.30
2959.45,3661.80
2961.95,3642.80
2964.46,3688.90
2966.96,3661.60
2969.45,3650.10
2971.95,3572.90
2974.44,3518.20
2976.94,3483.20
2979.43,3476.50
2981.92,3486.90
2984.40,3518.60
2986.89,3551.80
2989.37,3581.60
2991.85,3606.50
2994.33,3615.40
2996.81,3644.70
2999.28,3657.00
3001.75,3661.60
3004.22,3612.90
3006.69,3584.90
3009.16,3558.00
3011.63,3536.00
3014.09,3518.20
3016.55,3488.60
3019.01,3487.20
3021.47,3495.00
3023.93,3474.70
3026.38,3481.70
3028.83,3489.00
3031.28,3487.20
3033.73,3491.70
3036.18,3496.50
3038.62,3500.10
3041.06,3505.40
3043.50,3508.30
3045.94,3545.30
3048.38,3544.80
3050.81,3538.90
3053.25,3519.20
3055.68,3529.50
3058.11,3500.50
3060.53,3512.00
3062.96,3505.10
3065.38,3514.50
3067.80,3521.50
3070.22,3510.30
3072.64,3510.90
3075.06,3506.30
3077.47,3487.90
3079.88,3504.70
3082.29,3479.00
3084.70,3504.00
3087.11,3476.50
3089.51,3492.80
3091.91,3475.50
3094.31,3466.60
3096.71,3474.90
3099.11,3466.30
3101.50,3457.20
3103.90,3466.70
3106.29,3467.60
3108.68,3462.20
3111.06,3468.30
3113.45,3458.50
3115.83,3474.60
3118.21,3472.40
3120.59,3461.20
3122.97,3468.50
3125.35,3451.90
3127.72,3450.50
3130.09,3443.30
3132.46,3432.00
3134.83,3414.20
3137.20,3416.90
3139.56,3390.20
3141.92,3388.80
3144.28,3403.40
3146.64,3391.00
3149.00,3401.50
3151.35,3427.70
3153.71,3423.80
3156.06,3461.00
3158.41,3476.20
3160.75,3468.40
3163.10,3456.50
3165.44,3447.40
3167.78,3444.00
3170.12,3448.50
3172.46,3484.60
3174.80,3459.90
3177.13,3449.80
3179.46,3432.00
3181.79,3433.40
3184.12,3460.70
3186.45,3505.90
3188.77,3531.70
3191.09,3527.70
3193.41,3527.60
3195.73,3586.30
3198.05,3700.20
3200.36,3799.70
3202.68,3845.00
3204.99,3761.30
3207.30,3683.90
3209.60,3596.20
3211.91,3557.60
3214.21,3529.40
3216.51,3468.50
3218.81,3381.30
3221.11,3297.80
3223.41,3244.60
3225.70,3193.00
3227.99,3176.60
3230.28,3190.90
3232.57,3232.50
3234.86,3295.00
3237.14,3349.90
3239.43,3411.50
3241.71,3451.50
3243.98,3450.00
3246.26,3405.90
3248.54,3347.70
3250.81,3341.30
3253.08,3411.00
3255.35,3440.80
3257.62,3412.80
3259.88,3305.20
3262.15,3225.90
3264.41,3168.60
3266.67,3134.10
3268.93,3079.50
3271.18,2998.20
3273.44,2943.50
3275.69,2895.50
3277.94,2849.50
3280.19,2815.40
3282.43,2784.80
3284.68,2773.00
3286.92,2767.40
3289.16,2755.60
3291.40,2752.10
3293.64,2739.80
3295.87,2718.80
3298.11,2687.20
3300.34,2663.00
3302.57,2637.80
3304.80,2587.60
3307.02,2574.90
3309.25,2551.60
3311.47,2538.50
3313.69,2525.20
3315.91,2536.60
3318.12,2539.20
3320.34,2535.10
3322.55,2530.50
3324.76,2540.60
3326.97,2558.20
3329.18,2550.60
3331.38,2546.10
3333.58,2553.70
3335.78,2572.30
3337.98,2589.90
3340.18,2617.40
3342.38,2628.30
3344.57,2655.60
3346.76,2679.70
3348.95,2719.60
3351.14,2760.60
3353.33,2788.90
3355.51,2837.90
3357.69,2869.70
3359.87,2911.70
3362.05,2956.70
3364.23,3010.80
3366.40,3064.90
3368.58,3118.60
3370.75,3187.20
3372.92,3250.50
3375.08,3315.40
3377.25,3364.50
3379.41,3426.50
3381.57,3465.40
3383.73,3507.70
3385.89,3546.50
3388.05,3580.30
3390.20,3599.40
3392.35,3616.50
