ENLIGHTEN Version,1.6.8
Measurement ID,20190304-083733-457000-unknown
Serial Number,unknown
Label,2019-03-04 08:44:24 Sucrose 10x300ms Spectrum
Integration Time,25
Timestamp,2019-03-04 08:37:33.457000
Note,
Temperature,-99
CCD C0,801.7174072265625
CCD C1,0.14122000336647034
CCD C2,-5.609700110653648e-06
CCD C3,-8.541699791919655e-09
CCD Offset,0
CCD Gain,1.9
Laser Wavelength,785.0
Laser Enable,True
Laser Power,100.0
Laser Temperature,-99
Pixel Count,1024

Wavenumber,Processed
265.63,67.10
267.83,98.60
270.02,132.60
272.22,190.30
274.41,272.40
276.60,386.10
278.80,514.70
280.99,681.30
283.18,875.50
285.37,1060.90
287.55,1293.20
289.74,1545.40
291.93,1843.60
294.11,2077.50
296.30,2283.10
298.48,2448.20
300.66,2603.90
302.84,2758.50
305.02,2877.80
307.20,3014.80
309.38,3060.50
311.56,3085.30
313.74,2968.30
315.91,2806.60
318.09,2559.90
320.26,2306.40
322.43,2084.30
324.61,1895.20
326.78,1804.30
328.95,1777.70
331.12,1750.60
333.28,1785.70
335.45,1848.90
337.62,1938.40
339.78,2038.30
341.95,2113.80
344.11,2141.20
346.27,2189.10
348.43,2179.00
350.59,2218.80
352.75,2254.90
354.91,2421.00
357.07,2679.40
359.23,2938.20
361.38,3193.70
363.54,3265.30
365.69,3168.60
367.84,2945.80
370.00,2654.50
372.15,2354.20
374.30,2151.40
376.45,2027.80
378.59,1962.60
380.74,2001.60
382.89,2120.40
385.03,2326.60
387.18,2679.00
389.32,3324.80
391.46,4305.50
393.60,5722.30
395.74,7322.90
397.88,8711.10
400.02,9444.60
402.16,9354.10
404.29,8406.50
406.43,7045.90
408.57,5710.30
410.70,4762.70
412.83,4242.00
414.96,3994.20
417.09,3792.10
419.22,3509.30
421.35,3181.70
423.48,2823.30
425.61,2570.40
427.73,2484.20
429.86,2570.50
431.98,2888.90
434.11,3456.30
436.23,4082.40
438.35,4680.60
440.47,5006.90
442.59,4986.30
444.71,4565.90
446.82,3916.50
448.94,3185.30
451.05,2568.00
453.17,2122.50
455.28,1848.80
457.39,1689.50
459.51,1603.00
461.62,1571.90
463.73,1576.60
465.83,1640.50
467.94,1717.60
470.05,1791.80
472.15,1864.40
474.26,1894.30
476.36,1918.90
478.47,1897.80
480.57,1900.60
482.67,1907.50
484.77,2033.00
486.87,2207.00
488.97,2363.50
491.06,2581.80
493.16,2755.90
495.25,2824.80
497.35,2806.90
499.44,2695.70
501.53,2524.70
503.62,2349.30
505.71,2240.20
507.80,2167.30
509.89,2206.00
511.98,2412.10
514.07,2855.70
516.15,3654.70
518.24,4746.20
520.32,5931.70
522.40,6881.80
524.48,7442.30
526.56,7631.00
528.64,7500.50
530.72,7347.30
532.80,7293.00
534.88,7377.50
536.95,7494.00
539.03,7647.90
541.10,7743.40
543.17,7830.40
545.24,7915.60
547.32,8017.00
549.39,8072.00
551.45,7853.00
553.52,7393.50
555.59,6688.80
557.66,5877.00
559.72,5000.00
561.78,4253.80
563.85,3658.80
565.91,3216.30
567.97,2989.40
570.03,2868.00
572.09,2851.40
574.15,3020.80
576.21,3270.30
578.26,3637.50
580.32,3958.40
582.37,4172.70
584.42,4121.00
586.48,3854.70
588.53,3420.40
590.58,2948.50
592.63,2566.20
594.68,2299.50
596.72,2130.60
598.77,2054.40
600.82,1981.60
602.86,1943.60
604.90,1935.40
606.95,1909.60
608.99,1939.00
611.03,1961.60
613.07,1981.20
615.11,2041.90
617.15,2099.10
619.18,2203.50
621.22,2303.80
623.25,2448.30
625.29,2658.10
627.32,2923.00
629.35,3359.70
631.38,3900.50
633.41,4536.00
635.44,5162.60
637.47,5789.30
639.50,6066.90
641.52,6017.30
643.55,5673.90
645.57,4986.40
647.60,4269.00
649.62,3583.30
651.64,2985.50
653.66,2541.40
655.68,2260.10
657.70,2032.10
659.71,1858.20
661.73,1740.40
663.75,1644.00
665.76,1634.30
667.77,1631.70
669.79,1669.60
671.80,1762.70
673.81,1889.10
675.82,2023.90
677.83,2113.40
679.83,2151.40
681.84,2153.80
683.84,2118.60
685.85,2101.00
687.85,2062.80
689.86,2103.00
691.86,2154.50
693.86,2259.90
695.86,2343.50
697.86,2404.80
699.85,2463.40
701.85,2420.30
703.85,2364.40
705.84,2304.00
707.84,2221.10
709.83,2154.90
711.82,2096.20
713.81,2046.80
715.80,1992.00
717.79,1987.30
719.78,1985.80
721.76,1995.40
723.75,2029.70
725.74,2128.30
727.72,2308.60
729.70,2511.80
731.68,2772.20
733.67,3056.50
735.65,3220.20
737.62,3243.70
739.60,3190.60
741.58,3028.90
743.56,2850.00
745.53,2620.70
747.51,2431.20
749.48,2274.90
751.45,2113.40
753.42,2004.10
755.39,1884.80
757.36,1787.50
759.33,1698.10
761.30,1640.60
763.26,1561.90
765.23,1526.60
767.19,1466.10
769.16,1433.20
771.12,1421.50
773.08,1375.20
775.04,1361.60
777.00,1332.50
778.96,1318.20
780.92,1267.30
782.87,1302.90
784.83,1264.00
786.78,1276.20
788.74,1253.90
790.69,1236.40
792.64,1242.10
794.59,1242.70
796.54,1233.30
798.49,1231.50
800.44,1227.80
802.38,1227.60
804.33,1227.60
806.27,1261.00
808.22,1284.70
810.16,1279.60
812.10,1298.30
814.04,1330.40
815.98,1338.50
817.92,1374.00
819.86,1419.40
821.80,1455.80
823.73,1516.70
825.67,1610.90
827.60,1706.30
829.53,1809.30
831.47,2007.70
833.40,2336.30
835.33,2665.10
837.26,3333.00
839.18,4463.00
841.11,6193.60
843.04,8653.90
844.96,11244.70
846.89,13190.00
848.81,13943.10
850.73,13325.40
852.65,11422.60
854.57,8913.70
856.49,6572.00
858.41,4928.80
860.33,4039.10
862.24,3726.20
864.16,3790.00
866.07,3987.70
867.99,4219.10
869.90,4419.30
871.81,4476.00
873.72,4358.20
875.63,4079.80
877.54,3711.50
879.44,3220.10
881.35,2798.90
883.26,2383.80
885.16,2113.50
887.06,1934.20
888.97,1826.80
890.87,1775.90
892.77,1761.60
894.67,1793.40
896.57,1905.70
898.46,2040.60
900.36,2318.20
902.26,2727.10
904.15,3278.70
906.04,3856.60
907.94,4386.40
909.83,4810.20
911.72,5135.80
913.61,5341.70
915.50,5586.80
917.38,5825.90
919.27,5966.50
921.16,5901.90
923.04,5580.50
924.92,5028.50
926.81,4338.20
928.69,3633.20
930.57,3179.70
932.45,2912.60
934.33,2952.20
936.20,3236.00
938.08,3611.10
939.96,3955.30
941.83,4129.60
943.71,4085.70
945.58,3746.30
947.45,3307.00
949.32,2780.60
951.19,2330.30
953.06,1993.40
954.93,1804.30
956.79,1676.30
958.66,1579.50
960.52,1548.60
962.39,1522.60
964.25,1480.00
966.11,1474.00
967.97,1486.40
969.83,1476.20
971.69,1486.30
973.55,1488.60
975.41,1515.70
977.26,1570.20
979.12,1650.70
980.97,1721.00
982.82,1865.50
984.68,2087.20
986.53,2298.10
988.38,2463.70
990.23,2621.40
992.07,2688.00
993.92,2670.10
995.77,2635.10
997.61,2640.60
999.46,2692.90
1001.30,2894.10
1003.14,3166.70
1004.98,3505.80
1006.82,3970.70
1008.66,4438.80
1010.50,4798.10
1012.34,5046.70
1014.17,5102.80
1016.01,4823.30
1017.84,4361.60
1019.68,3884.00
1021.51,3466.80
1023.34,3233.40
1025.17,3238.10
1027.00,3562.30
1028.83,4325.10
1030.65,5547.00
1032.48,7078.30
1034.31,8598.40
1036.13,9687.30
1037.95,10221.00
1039.77,9795.90
1041.60,9370.00
1043.42,8382.40
1045.24,7365.80
1047.05,6582.00
1048.87,5985.10
1050.69,5517.10
1052.50,5207.20
1054.32,4820.50
1056.13,4532.50
1057.94,4281.50
1059.75,4120.20
1061.56,4044.90
1063.37,4087.50
1065.18,4208.50
1066.99,4327.30
1068.80,4432.00
1070.60,4557.00
1072.41,4679.00
1074.21,4869.50
1076.01,5078.40
1077.81,5351.10
1079.61,5611.20
1081.41,5842.70
1083.21,6052.60
1085.01,6203.60
1086.81,6262.70
1088.60,6166.40
1090.40,5994.70
1092.19,5694.90
1093.98,5397.40
1095.77,5201.60
1097.56,5150.70
1099.35,5288.70
1101.14,5441.60
1102.93,5692.30
1104.72,5824.40
1106.50,5878.20
1108.29,5971.70
1110.07,6212.60
1111.85,6602.30
1113.63,7215.40
1115.41,8026.50
1117.19,8908.20
1118.97,9951.10
1120.75,10903.80
1122.53,11636.20
1124.30,12012.00
1126.08,11956.60
1127.85,11368.20
1129.62,10513.40
1131.39,9287.60
1133.17,7999.20
1134.93,6846.70
1136.70,5741.30
1138.47,4896.30
1140.24,4226.00
1142.00,3660.10
1143.77,3300.30
1145.53,3073.80
1147.29,2961.20
1149.06,2955.10
1150.82,3150.70
1152.58,3473.60
1154.34,4036.30
1156.09,4635.50
1157.85,5186.70
1159.61,5613.10
1161.36,5787.60
1163.11,5686.20
1164.87,5423.70
1166.62,5165.50
1168.37,4828.10
1170.12,4598.90
1171.87,4345.20
1173.62,4057.80
1175.36,3698.90
1177.11,3295.90
1178.85,2889.10
1180.60,2589.40
1182.34,2346.60
1184.08,2227.10
1185.82,2129.60
1187.56,2106.70
1189.30,2138.00
1191.04,2140.10
1192.78,2201.30
1194.51,2322.20
1196.25,2473.90
1197.98,2649.70
1199.71,2865.40
1201.45,3072.90
1203.18,3290.90
1204.91,3502.40
1206.64,3612.00
1208.36,3647.90
1210.09,3608.80
1211.82,3488.20
1213.54,3370.70
1215.27,3201.30
1216.99,3087.50
1218.71,3029.30
1220.43,3067.70
1222.15,3155.40
1223.87,3372.40
1225.59,3703.50
1227.31,4165.60
1229.02,4662.50
1230.74,5273.10
1232.45,5903.60
1234.16,6550.40
1235.88,6868.00
1237.59,7185.70
1239.30,7168.50
1241.01,6806.80
1242.71,6233.50
1244.42,5580.50
1246.13,4926.00
1247.83,4444.30
1249.54,4006.30
1251.24,3818.60
1252.94,3717.00
1254.64,3773.30
1256.34,3901.60
1258.04,4071.80
1259.74,4225.00
1261.44,4314.80
1263.13,4328.50
1264.83,4277.90
1266.52,4134.40
1268.22,3956.60
1269.91,3878.60
1271.60,3826.50
1273.29,3847.20
1274.98,3836.00
1276.67,3797.80
1278.35,3737.20
1280.04,3668.20
1281.73,3533.10
1283.41,3372.90
1285.09,3224.90
1286.78,3019.70
1288.46,2951.80
1290.14,2833.60
1291.82,2794.50
1293.49,2789.00
1295.17,2783.30
1296.85,2825.80
1298.52,2908.90
1300.20,2955.60
1301.87,3003.50
1303.54,3058.30
1305.21,3042.00
1306.88,3046.30
1308.55,3031.50
1310.22,3058.60
1311.89,3082.00
1313.56,3150.10
1315.22,3323.50
1316.89,3557.80
1318.55,3870.00
1320.21,4137.70
1321.87,4487.10
1323.53,4741.20
1325.19,4893.70
1326.85,5015.40
1328.51,4962.10
1330.16,4933.80
1331.82,4788.10
1333.47,4715.60
1335.13,4677.90
1336.78,4754.90
1338.43,4963.00
1340.08,5355.80
1341.73,5774.00
1343.38,6233.90
1345.03,6686.80
1346.67,6973.90
1348.32,7088.20
1349.96,7038.30
1351.61,6787.80
1353.25,6441.20
1354.89,6136.80
1356.53,5970.50
1358.17,5989.40
1359.81,6089.80
1361.45,6342.50
1363.08,6688.70
1364.72,6918.40
1366.35,7051.70
1367.99,7035.90
1369.62,7015.60
1371.25,6810.40
1372.88,6693.10
1374.51,6638.70
1376.14,6573.90
1377.77,6450.20
1379.39,6286.80
1381.02,5975.70
1382.64,5700.50
1384.27,5368.60
1385.89,5043.00
1387.51,4820.70
1389.13,4591.60
1390.75,4431.40
1392.37,4284.70
1393.99,4200.30
1395.60,4124.90
1397.22,4127.30
1398.83,4095.80
1400.45,4177.80
1402.06,4263.20
1403.67,4342.00
1405.28,4536.10
1406.89,4662.40
1408.50,4700.20
1410.11,4751.60
1411.71,4765.10
1413.32,4799.10
1414.92,4858.30
1416.53,4951.20
1418.13,5058.40
1419.73,5140.60
1421.33,5207.20
1422.93,5263.50
1424.53,5328.70
1426.13,5304.00
1427.72,5279.50
1429.32,5228.90
1430.91,5230.70
1432.51,5160.20
1434.10,5170.90
1435.69,5063.90
1437.28,5031.80
1438.87,4961.70
1440.46,4875.80
1442.05,4825.50
1443.64,4699.00
1445.22,4650.40
1446.81,4637.20
1448.39,4732.20
1449.97,4836.80
1451.55,5212.10
1453.14,5803.30
1454.72,6599.70
1456.29,7541.50
1457.87,8489.40
1459.45,9260.10
1461.02,9586.30
1462.60,9515.40
1464.17,8981.00
1465.75,8140.90
1467.32,7232.90
1468.89,6445.10
1470.46,5725.30
1472.03,5209.90
1473.59,4832.40
1475.16,4543.40
1476.73,4220.70
1478.29,3807.60
1479.86,3497.20
1481.42,3173.20
1482.98,2881.80
1484.54,2641.00
1486.10,2520.70
1487.66,2427.50
1489.22,2334.10
1490.77,2272.60
1492.33,2245.60
1493.88,2186.70
1495.44,2203.60
1496.99,2206.50
1498.54,2080.60
1500.09,2116.10
1501.64,2115.30
1503.19,2063.60
1504.74,2078.10
1506.29,2030.50
1507.83,2011.30
1509.38,2023.80
1510.92,2021.80
1512.47,1970.40
1514.01,1954.90
1515.55,1986.80
1517.09,1948.60
1518.63,1949.50
1520.16,1960.40
1521.70,1935.70
1523.24,1934.70
1524.77,1922.20
1526.31,1899.90
1527.84,1903.40
1529.37,1932.40
1530.90,1886.70
1532.43,1920.20
1533.96,1936.80
1535.49,1916.40
1537.02,1895.40
1538.54,1899.20
1540.07,1876.30
1541.59,1910.30
1543.11,1864.30
1544.64,1836.10
1546.16,1853.70
1547.68,1848.30
1549.20,1866.30
1550.71,1814.40
1552.23,1840.40
1553.75,1848.10
1555.26,1821.90
1556.78,1820.80
1558.29,1829.30
1559.80,1858.70
1561.31,1848.10
1562.82,1791.40
1564.33,1792.90
1565.84,1813.10
1567.35,1788.90
1568.85,1821.30
1570.36,1805.00
1571.86,1784.60
1573.36,1774.90
1574.87,1777.70
1576.37,1764.60
1577.87,1773.40
1579.37,1778.40
1580.87,1730.70
1582.36,1756.70
1583.86,1724.70
1585.35,1729.80
1586.85,1743.30
1588.34,1762.20
1589.83,1725.80
1591.32,1696.50
1592.81,1688.40
1594.30,1717.30
1595.79,1707.60
1597.28,1681.50
1598.76,1748.70
1600.25,1699.70
1601.73,1724.00
1603.22,1718.20
1604.70,1713.80
1606.18,1659.90
1607.66,1692.90
1609.14,1683.20
1610.62,1644.50
1612.10,1650.90
1613.57,1660.00
1615.05,1678.70
1616.52,1660.70
1617.99,1674.00
1619.47,1606.80
1620.94,1663.60
1622.41,1675.20
1623.88,1611.00
1625.35,1612.00
1626.81,1656.40
1628.28,1637.00
1629.74,1627.30
1631.21,1624.10
1632.67,1641.50
1634.13,1636.30
1635.60,1608.20
1637.06,1605.30
1638.51,1581.90
1639.97,1576.30
1641.43,1590.90
1642.89,1568.00
1644.34,1589.60
1645.80,1579.40
1647.25,1577.60
1648.70,1579.20
1650.15,1598.90
1651.60,1591.70
1653.05,1581.20
1654.50,1572.80
1655.95,1598.30
1657.40,1601.00
1658.84,1558.10
1660.28,1565.20
1661.73,1529.70
1663.17,1562.70
1664.61,1566.40
1666.05,1520.10
1667.49,1551.70
1668.93,1535.30
1670.37,1545.50
1671.80,1550.80
1673.24,1607.10
1674.67,1534.50
1676.11,1537.90
1677.54,1537.60
1678.97,1529.80
1680.40,1535.60
1681.83,1493.90
1683.26,1458.70
1684.69,1525.60
1686.11,1507.20
1687.54,1476.90
1688.96,1499.30
1690.39,1516.80
1691.81,1509.00
1693.23,1470.10
1694.65,1477.40
1696.07,1466.80
1697.49,1486.50
1698.91,1470.60
1700.32,1494.60
1701.74,1481.30
1703.15,1474.10
1704.57,1447.70
1705.98,1451.90
1707.39,1471.00
1708.80,1436.90
1710.21,1430.80
1711.62,1437.90
1713.03,1416.40
1714.43,1411.40
1715.84,1463.10
1717.24,1439.10
1718.65,1423.30
1720.05,1456.40
1721.45,1432.60
1722.85,1435.90
1724.25,1424.20
1725.65,1423.40
1727.05,1370.70
1728.44,1379.80
1729.84,1407.30
1731.23,1373.40
1732.63,1380.30
1734.02,1378.80
1735.41,1347.00
1736.80,1394.90
1738.19,1360.20
1739.58,1342.90
1740.97,1349.20
1742.35,1347.20
1743.74,1364.50
1745.12,1336.30
1746.51,1339.10
1747.89,1306.20
1749.27,1313.60
1750.65,1329.80
1752.03,1324.30
1753.41,1343.50
1754.79,1354.80
1756.17,1297.20
1757.54,1327.80
1758.92,1296.60
1760.29,1286.60
1761.66,1294.40
1763.03,1297.50
1764.41,1319.60
1765.78,1288.90
1767.14,1290.80
1768.51,1257.10
1769.88,1275.50
1771.24,1260.90
1772.61,1243.00
1773.97,1275.30
1775.34,1249.60
1776.70,1249.60
1778.06,1254.80
1779.42,1272.50
1780.78,1252.50
1782.13,1235.40
1783.49,1230.80
1784.85,1238.60
1786.20,1229.60
1787.56,1218.20
1788.91,1217.90
1790.26,1222.60
1791.61,1233.50
1792.96,1183.90
1794.31,1225.10
1795.66,1211.10
1797.00,1236.10
1798.35,1195.10
1799.69,1170.00
1801.04,1200.00
1802.38,1172.20
1803.72,1180.10
1805.06,1184.50
1806.40,1189.20
1807.74,1185.40
1809.08,1178.90
1810.42,1198.70
1811.75,1166.00
1813.09,1188.40
1814.42,1175.80
1815.76,1192.00
1817.09,1170.90
1818.42,1155.90
1819.75,1165.60
1821.08,1158.70
1822.40,1146.20
1823.73,1179.50
1825.06,1148.90
1826.38,1138.20
1827.71,1121.10
1829.03,1132.80
1830.35,1137.90
1831.67,1143.30
1832.99,1116.70
1834.31,1133.50
1835.63,1131.20
1836.95,1137.10
1838.26,1123.70
1839.58,1129.30
1840.89,1146.10
1842.20,1106.10
1843.52,1142.00
1844.83,1110.00
1846.14,1125.00
1847.45,1102.10
1848.75,1088.20
1850.06,1103.00
1851.37,1094.50
1852.67,1089.40
1853.98,1094.90
1855.28,1083.10
1856.58,1081.70
1857.88,1092.80
1859.18,1083.40
1860.48,1087.50
1861.78,1097.90
1863.08,1096.20
1864.37,1066.00
1865.67,1081.90
1866.96,1057.10
1868.26,1046.70
1869.55,1039.90
1870.84,1025.80
1872.13,1035.10
1873.42,1049.90
1874.71,1055.80
1875.99,1011.90
1877.28,1038.30
1878.56,1048.60
1879.85,1025.50
1881.13,1043.40
1882.41,1020.30
1883.69,1023.60
1884.97,1050.60
1886.25,1011.60
1887.53,1010.00
1888.81,1004.80
1890.09,1015.70
1891.36,1013.10
1892.63,1048.80
1893.91,1002.10
1895.18,1008.00
1896.45,1023.60
1897.72,1014.40
1898.99,1021.30
1900.26,959.50
1901.53,996.30
1902.79,998.80
1904.06,973.20
1905.32,994.80
1906.58,972.20
1907.85,970.50
1909.11,966.60
1910.37,964.10
1911.63,966.40
1912.89,983.20
1914.14,959.20
1915.40,965.10
1916.65,987.10
1917.91,951.00
1919.16,953.50
1920.41,952.10
1921.67,944.60
1922.92,946.50
1924.17,940.50
1925.41,908.10
1926.66,921.90
1927.91,935.90
1929.15,913.50
1930.40,898.20
1931.64,907.50
1932.88,921.00
1934.12,890.40
1935.36,910.60
1936.60,888.00
1937.84,898.60
1939.08,905.10
1940.32,871.80
1941.55,895.60
1942.79,876.80
1944.02,887.20
1945.25,858.20
1946.48,869.40
1947.71,870.80
1948.94,864.10
1950.17,892.70
1951.40,875.60
1952.62,859.70
1953.85,878.50
1955.07,847.40
1956.30,847.90
1957.52,849.20
1958.74,837.90
1959.96,849.00
1961.18,836.60
1962.40,849.10
1963.62,855.60
1964.83,832.10
1966.05,819.30
1967.26,831.70
1968.48,850.80
1969.69,846.00
1970.90,843.20
1972.11,841.00
1973.32,841.60
1974.53,852.70
1975.74,817.80
1976.94,789.50
1978.15,844.50
1979.35,814.80
1980.56,832.20
1981.76,798.30
1982.96,834.30
1984.16,788.70
1985.36,810.30
1986.56,787.90
1987.76,797.20
1988.95,772.60
1990.15,769.50
1991.34,774.10
1992.54,767.20
1993.73,757.70
1994.92,764.50
1996.11,751.80
1997.30,746.80
1998.49,752.50
1999.68,748.10
